File: HiWi/Composite and stress recovery branch/Tsai-Wu - tensile test/thin quad/nasa_ex3_long.gid/quad_thru_s_xx.txt
44079.2
44079.2
5861.69
5861.69
5861.69
5861.69
44079.2
44079.2
0.0