File: HiWi/Composite and stress recovery branch/Tsai-Wu - tensile test/thin quad/nasa_ex3_long.gid/strand_thru_tsai.txt
1.746
1.746
1.375
1.375
1.375
1.375
1.746
1.746
0.0