File: HiWi/Composite and stress recovery branch/Tsai-Wu - tensile test/thin quad/nasa_ex3_long.gid/thru_result.txt
1.74182
1.74182
1.39556
1.39556
1.39556
1.39556
1.74182
1.74182
0.0