File: HiWi/Composite and stress recovery branch/Tsai-Wu - tensile test/thin tri/nasa_ex3_long.gid/tri_thru_s_yy.txt
-48.2685
-47.8677
51.2884
48.8773
48.8773
46.4662
-47.066
-46.6651
0.0