File: HiWi/Composite and stress recovery branch/Tsai-Wu - tensile test/thin tri/nasa_ex3_long.gid/tri_thru_s_xy.txt
-1141.54
-1142.8
1140.79
1137.64
1137.64
1134.5
-1145.33
-1146.59
0.0