File: HiWi/Composite and stress recovery branch/Tsai-Wu - tensile test/thick quad/nasa_ex3_long.gid/quad_thru_s_xy.txt
-1149.14
-1149.14
1150.46
1150.46
1150.46
1150.46
-1149.14
-1149.14
0.0